Test:46
BatchNo: /	
SampleNo: /	
Custom1: /	
Custom2: /	
Custom3: 11/4/2022	
Custom4: /	
Custom5: /	
Custom6: /	
Custom7: /	
Custom8: 9.99	
Custom9: 3.12	
Custom10: /	
Custom11: 31.169	
Custom12: 25.709	
Custom13: 2.2	
Custom14: 0.086	
Custom15: 2.14	
Custom16: 69	
Custom17: 3.35	
Custom18: 2.763	
Custom19: 2763	
Custom20: 0.000	
Custom21: 0.00	
Custom22: 0.000	
Custom23: 0.00	
Custom24: 1.67	
Custom25: 53.58	
Custom26: 1.47	
Custom27: 0.84	
Custom28: 2.07	
Custom29: 0.00	
Custom30: 66.41	
Custom31: /	
Custom32: /	
Custom33: /	
Custom34: /	
Custom35: /	
Custom36: /	
Custom37: /	
Custom38: /	
Custom39: /	
Custom40: /	

=========================Curve==========================
DataNumber:1092
Load		Extension Broadwise Extension	Displacement	Stress		Strain		Time
0.0078		0.0000		0.0000		0.0167		0.2503		0.0000		0.1000
0.0126		0.0012		0.0000		0.0251		0.4043		0.0024		0.2000
0.0178		0.0026		0.0000		0.0334		0.5711		0.0052		0.3000
0.0228		0.0040		0.0000		0.0418		0.7315		0.0080		0.4000
0.0276		0.0056		0.0000		0.0501		0.8855		0.0112		0.5000
0.0320		0.0070		0.0000		0.0585		1.0267		0.0140		0.6000
0.0364		0.0082		0.0000		0.0668		1.1678		0.0164		0.7000
0.0404		0.0096		0.0000		0.0749		1.2962		0.0192		0.8000
0.0448		0.0110		0.0000		0.0835		1.4373		0.0220		0.9000
0.0496		0.0122		0.0000		0.0919		1.5913		0.0244		1.0000
0.0544		0.0136		0.0000		0.1002		1.7453		0.0272		1.1000
0.0586		0.0148		0.0000		0.1086		1.8801		0.0296		1.2000
0.0626		0.0160		0.0000		0.1169		2.0084		0.0320		1.3000
0.0662		0.0172		0.0000		0.1250		2.1239		0.0344		1.4000
0.0698		0.0184		0.0000		0.1333		2.2394		0.0368		1.5000
0.0736		0.0196		0.0000		0.1417		2.3613		0.0392		1.6000
0.0778		0.0208		0.0000		0.1500		2.4961		0.0416		1.7000
0.0818		0.0220		0.0000		0.1587		2.6244		0.0440		1.8000
0.0858		0.0230		0.0000		0.1670		2.7528		0.0460		1.9000
0.0892		0.0242		0.0000		0.1751		2.8618		0.0484		2.0000
0.0928		0.0254		0.0000		0.1835		2.9773		0.0508		2.1000
0.0960		0.0264		0.0000		0.1918		3.0800		0.0528		2.2000
0.0998		0.0276		0.0000		0.2002		3.2019		0.0552		2.3000
0.1036		0.0286		0.0000		0.2085		3.3238		0.0572		2.4000
0.1076		0.0298		0.0000		0.2169		3.4522		0.0596		2.5000
0.1112		0.0308		0.0000		0.2252		3.5677		0.0616		2.6000
0.1146		0.0318		0.0000		0.2336		3.6768		0.0636		2.7000
0.1180		0.0328		0.0000		0.2419		3.7858		0.0656		2.8000
0.1212		0.0338		0.0000		0.2500		3.8885		0.0676		2.9000
0.1246		0.0350		0.0000		0.2583		3.9976		0.0700		3.0000
0.1284		0.0360		0.0000		0.2667		4.1195		0.0720		3.1000
0.1324		0.0370		0.0000		0.2753		4.2478		0.0740		3.2000
0.1360		0.0380		0.0000		0.2837		4.3633		0.0760		3.3000
0.1392		0.0390		0.0000		0.2920		4.4660		0.0780		3.4000
0.1426		0.0402		0.0000		0.3004		4.5751		0.0804		3.5000
0.1458		0.0412		0.0000		0.3087		4.6778		0.0824		3.6000
0.1496		0.0422		0.0000		0.3168		4.7997		0.0844		3.7000
0.1534		0.0434		0.0000		0.3252		4.9216		0.0868		3.8000
0.1572		0.0442		0.0000		0.3335		5.0435		0.0884		3.9000
0.1606		0.0452		0.0000		0.3421		5.1526		0.0904		4.0000
0.1644		0.0462		0.0000		0.3505		5.2745		0.0924		4.1000
0.1676		0.0468		0.0000		0.3588		5.3772		0.0936		4.2000
0.1710		0.0466		0.0000		0.3669		5.4863		0.0932		4.3000
0.1748		0.0472		0.0000		0.3753		5.6082		0.0944		4.4000
0.1788		0.0482		0.0000		0.3836		5.7365		0.0964		4.5000
0.1828		0.0492		0.0000		0.3920		5.8648		0.0984		4.6000
0.1864		0.0504		0.0000		0.4003		5.9803		0.1008		4.7000
0.1900		0.0514		0.0000		0.4087		6.0958		0.1028		4.8000
0.1934		0.0526		0.0000		0.4170		6.2049		0.1052		4.9000
0.1970		0.0536		0.0000		0.4254		6.3204		0.1072		5.0000
0.2010		0.0548		0.0000		0.4337		6.4488		0.1096		5.1000
0.2048		0.0558		0.0000		0.4418		6.5707		0.1116		5.2000
0.2086		0.0568		0.0000		0.4501		6.6926		0.1136		5.3000
0.2124		0.0578		0.0000		0.4585		6.8145		0.1156		5.4000
0.2164		0.0586		0.0000		0.4668		6.9428		0.1172		5.5000
0.2198		0.0596		0.0000		0.4755		7.0519		0.1192		5.6000
0.2234		0.0608		0.0000		0.4838		7.1674		0.1216		5.7000
0.2274		0.0618		0.0000		0.4922		7.2958		0.1236		5.8000
0.2316		0.0628		0.0000		0.5003		7.4305		0.1256		5.9000
0.2356		0.0638		0.0000		0.5086		7.5588		0.1276		6.0000
0.2394		0.0650		0.0000		0.5170		7.6808		0.1300		6.1000
0.2430		0.0660		0.0000		0.5253		7.7963		0.1320		6.2000
0.2468		0.0670		0.0000		0.5337		7.9182		0.1340		6.3000
0.2506		0.0680		0.0000		0.5420		8.0401		0.1360		6.4000
0.2544		0.0690		0.0000		0.5504		8.1620		0.1380		6.5000
0.2586		0.0702		0.0000		0.5587		8.2968		0.1404		6.6000
0.2630		0.0712		0.0000		0.5671		8.4379		0.1424		6.7000
0.2668		0.0724		0.0000		0.5751		8.5598		0.1448		6.8000
0.2704		0.0734		0.0000		0.5835		8.6753		0.1468		6.9000
0.2740		0.0746		0.0000		0.5918		8.7908		0.1492		7.0000
0.2778		0.0756		0.0000		0.6005		8.9128		0.1512		7.1000
0.2822		0.0766		0.0000		0.6088		9.0539		0.1532		7.2000
0.2862		0.0776		0.0000		0.6169		9.1823		0.1552		7.3000
0.2904		0.0788		0.0000		0.6255		9.3170		0.1576		7.4000
0.2942		0.0798		0.0000		0.6336		9.4389		0.1596		7.5000
0.2980		0.0810		0.0000		0.6420		9.5608		0.1620		7.6000
0.3016		0.0820		0.0000		0.6503		9.6763		0.1640		7.7000
0.3056		0.0832		0.0000		0.6587		9.8047		0.1664		7.8000
0.3098		0.0842		0.0000		0.6670		9.9394		0.1684		7.9000
0.3144		0.0854		0.0000		0.6754		10.0870		0.1708		8.0000
0.3184		0.0866		0.0000		0.6837		10.2153		0.1732		8.1000
0.3222		0.0874		0.0000		0.6921		10.3373		0.1748		8.2000
0.3260		0.0884		0.0000		0.7001		10.4592		0.1768		8.3000
0.3298		0.0896		0.0000		0.7085		10.5811		0.1792		8.4000
0.3338		0.0908		0.0000		0.7171		10.7094		0.1816		8.5000
0.3382		0.0918		0.0000		0.7255		10.8506		0.1836		8.6000
0.3426		0.0930		0.0000		0.7338		10.9918		0.1860		8.7000
0.3470		0.0942		0.0000		0.7422		11.1329		0.1884		8.8000
0.3508		0.0952		0.0000		0.7502		11.2548		0.1904		8.9000
0.3546		0.0964		0.0000		0.7586		11.3768		0.1928		9.0000
0.3582		0.0974		0.0000		0.7669		11.4923		0.1948		9.1000
0.3626		0.0986		0.0000		0.7753		11.6334		0.1972		9.2000
0.3668		0.0998		0.0000		0.7836		11.7682		0.1996		9.3000
0.3712		0.1008		0.0000		0.7920		11.9093		0.2016		9.4000
0.3754		0.1020		0.0000		0.8004		12.0441		0.2040		9.5000
0.3794		0.1030		0.0000		0.8087		12.1724		0.2060		9.6000
0.3832		0.1042		0.0000		0.8171		12.2943		0.2084		9.7000
0.3870		0.1054		0.0000		0.8254		12.4163		0.2108		9.8000
0.3910		0.1064		0.0000		0.8335		12.5446		0.2128		9.9000
0.3954		0.1074		0.0000		0.8421		12.6858		0.2148		10.0000
0.3996		0.1086		0.0000		0.8505		12.8205		0.2172		10.1000
0.4038		0.1098		0.0000		0.8588		12.9553		0.2196		10.2000
0.4078		0.1110		0.0000		0.8672		13.0836		0.2220		10.3000
0.4118		0.1122		0.0000		0.8755		13.2119		0.2244		10.4000
0.4154		0.1132		0.0000		0.8836		13.3274		0.2264		10.5000
0.4196		0.1144		0.0000		0.8919		13.4622		0.2288		10.6000
0.4238		0.1156		0.0000		0.9003		13.5969		0.2312		10.7000
0.4286		0.1166		0.0000		0.9086		13.7509		0.2332		10.8000
0.4326		0.1178		0.0000		0.9170		13.8793		0.2356		10.9000
0.4366		0.1192		0.0000		0.9253		14.0076		0.2384		11.0000
0.4404		0.1202		0.0000		0.9337		14.1295		0.2404		11.1000
0.4444		0.1214		0.0000		0.9420		14.2578		0.2428		11.2000
0.4486		0.1226		0.0000		0.9501		14.3926		0.2452		11.3000
0.4528		0.1238		0.0000		0.9585		14.5273		0.2476		11.4000
0.4574		0.1250		0.0000		0.9668		14.6749		0.2500		11.5000
0.4618		0.1262		0.0000		0.9752		14.8161		0.2524		11.6000
0.4658		0.1272		0.0000		0.9835		14.9444		0.2544		11.7000
0.4696		0.1284		0.0000		0.9919		15.0663		0.2568		11.8000
0.4734		0.1296		0.0000		1.0002		15.1883		0.2592		11.9000
0.4778		0.1306		0.0000		1.0086		15.3294		0.2612		12.0000
0.4822		0.1318		0.0000		1.0166		15.4706		0.2636		12.1000
0.4866		0.1330		0.0000		1.0250		15.6118		0.2660		12.2000
0.4906		0.1342		0.0000		1.0336		15.7401		0.2684		12.3000
0.4948		0.1354		0.0000		1.0420		15.8749		0.2708		12.4000
0.4986		0.1366		0.0000		1.0503		15.9968		0.2732		12.5000
0.5026		0.1378		0.0000		1.0587		16.1251		0.2756		12.6000
0.5068		0.1390		0.0000		1.0668		16.2598		0.2780		12.7000
0.5114		0.1402		0.0000		1.0751		16.4074		0.2804		12.8000
0.5158		0.1414		0.0000		1.0835		16.5486		0.2828		12.9000
0.5200		0.1426		0.0000		1.0918		16.6833		0.2852		13.0000
0.5240		0.1438		0.0000		1.1002		16.8117		0.2876		13.1000
0.5282		0.1450		0.0000		1.1085		16.9464		0.2900		13.2000
0.5322		0.1462		0.0000		1.1169		17.0748		0.2924		13.3000
0.5364		0.1476		0.0000		1.1252		17.2095		0.2952		13.4000
0.5410		0.1488		0.0000		1.1336		17.3571		0.2976		13.5000
0.5454		0.1500		0.0000		1.1416		17.4983		0.3000		13.6000
0.5494		0.1512		0.0000		1.1503		17.6266		0.3024		13.7000
0.5532		0.1524		0.0000		1.1586		17.7485		0.3048		13.8000
0.5574		0.1536		0.0000		1.1670		17.8833		0.3072		13.9000
0.5614		0.1548		0.0000		1.1753		18.0116		0.3096		14.0000
0.5658		0.1562		0.0000		1.1837		18.1528		0.3124		14.1000
0.5702		0.1574		0.0000		1.1917		18.2939		0.3148		14.2000
0.5746		0.1586		0.0000		1.2001		18.4351		0.3172		14.3000
0.5786		0.1598		0.0000		1.2084		18.5634		0.3196		14.4000
0.5826		0.1610		0.0000		1.2168		18.6918		0.3220		14.5000
0.5866		0.1622		0.0000		1.2252		18.8201		0.3244		14.6000
0.5908		0.1634		0.0000		1.2335		18.9549		0.3268		14.7000
0.5950		0.1648		0.0000		1.2419		19.0896		0.3296		14.8000
0.5996		0.1660		0.0000		1.2502		19.2372		0.3320		14.9000
0.6040		0.1672		0.0000		1.2586		19.3784		0.3344		15.0000
0.6080		0.1684		0.0000		1.2669		19.5067		0.3368		15.1000
0.6120		0.1698		0.0000		1.2753		19.6350		0.3396		15.2000
0.6158		0.1710		0.0000		1.2836		19.7569		0.3420		15.3000
0.6200		0.1722		0.0000		1.2920		19.8917		0.3444		15.4000
0.6244		0.1734		0.0000		1.3003		20.0329		0.3468		15.5000
0.6290		0.1744		0.0000		1.3087		20.1804		0.3488		15.6000
0.6332		0.1756		0.0000		1.3170		20.3152		0.3512		15.7000
0.6370		0.1768		0.0000		1.3251		20.4371		0.3536		15.8000
0.6414		0.1780		0.0000		1.3334		20.5783		0.3560		15.9000
0.6452		0.1794		0.0000		1.3418		20.7002		0.3588		16.0000
0.6496		0.1806		0.0000		1.3501		20.8414		0.3612		16.1000
0.6538		0.1818		0.0000		1.3585		20.9761		0.3636		16.2000
0.6586		0.1832		0.0000		1.3668		21.1301		0.3664		16.3000
0.6630		0.1844		0.0000		1.3755		21.2713		0.3688		16.4000
0.6670		0.1858		0.0000		1.3836		21.3996		0.3716		16.5000
0.6710		0.1870		0.0000		1.3919		21.5279		0.3740		16.6000
0.6752		0.1884		0.0000		1.4003		21.6627		0.3768		16.7000
0.6792		0.1896		0.0000		1.4086		21.7910		0.3792		16.8000
0.6836		0.1910		0.0000		1.4170		21.9322		0.3820		16.9000
0.6882		0.1922		0.0000		1.4253		22.0798		0.3844		17.0000
0.6928		0.1936		0.0000		1.4337		22.2274		0.3872		17.1000
0.6968		0.1948		0.0000		1.4420		22.3557		0.3896		17.2000
0.7008		0.1960		0.0000		1.4501		22.4840		0.3920		17.3000
0.7050		0.1972		0.0000		1.4584		22.6188		0.3944		17.4000
0.7092		0.1986		0.0000		1.4668		22.7535		0.3972		17.5000
0.7134		0.1998		0.0000		1.4751		22.8883		0.3996		17.6000
0.7180		0.2012		0.0000		1.4835		23.0359		0.4024		17.7000
0.7224		0.2024		0.0000		1.4921		23.1770		0.4048		17.8000
0.7264		0.2038		0.0000		1.5002		23.3054		0.4076		17.9000
0.7306		0.2050		0.0000		1.5085		23.4401		0.4100		18.0000
0.7344		0.2062		0.0000		1.5169		23.5620		0.4124		18.1000
0.7386		0.2076		0.0000		1.5252		23.6968		0.4152		18.2000
0.7428		0.2088		0.0000		1.5336		23.8315		0.4176		18.3000
0.7472		0.2100		0.0000		1.5420		23.9727		0.4200		18.4000
0.7514		0.2114		0.0000		1.5503		24.1074		0.4228		18.5000
0.7554		0.2128		0.0000		1.5587		24.2358		0.4256		18.6000
0.7594		0.2140		0.0000		1.5670		24.3641		0.4280		18.7000
0.7634		0.2154		0.0000		1.5751		24.4924		0.4308		18.8000
0.7676		0.2166		0.0000		1.5834		24.6272		0.4332		18.9000
0.7720		0.2178		0.0000		1.5918		24.7684		0.4356		19.0000
0.7762		0.2190		0.0000		1.6001		24.9031		0.4380		19.1000
0.7804		0.2202		0.0000		1.6085		25.0379		0.4404		19.2000
0.7844		0.2216		0.0000		1.6171		25.1662		0.4432		19.3000
0.7886		0.2228		0.0000		1.6255		25.3009		0.4456		19.4000
0.7924		0.2242		0.0000		1.6335		25.4229		0.4484		19.5000
0.7964		0.2254		0.0000		1.6419		25.5512		0.4508		19.6000
0.8008		0.2266		0.0000		1.6502		25.6924		0.4532		19.7000
0.8054		0.2280		0.0000		1.6586		25.8399		0.4560		19.8000
0.8096		0.2294		0.0000		1.6669		25.9747		0.4588		19.9000
0.8136		0.2306		0.0000		1.6753		26.1030		0.4612		20.0000
0.8174		0.2320		0.0000		1.6836		26.2249		0.4640		20.1000
0.8214		0.2332		0.0000		1.6920		26.3533		0.4664		20.2000
0.8254		0.2344		0.0000		1.7004		26.4816		0.4688		20.3000
0.8298		0.2358		0.0000		1.7084		26.6228		0.4716		20.4000
0.8342		0.2372		0.0000		1.7168		26.7639		0.4744		20.5000
0.8384		0.2386		0.0000		1.7251		26.8987		0.4772		20.6000
0.8422		0.2400		0.0000		1.7338		27.0206		0.4800		20.7000
0.8462		0.2412		0.0000		1.7421		27.1489		0.4824		20.8000
0.8500		0.2424		0.0000		1.7505		27.2709		0.4848		20.9000
0.8542		0.2438		0.0000		1.7585		27.4056		0.4876		21.0000
0.8586		0.2450		0.0000		1.7669		27.5468		0.4900		21.1000
0.8628		0.2464		0.0000		1.7752		27.6815		0.4928		21.2000
0.8668		0.2476		0.0000		1.7836		27.8099		0.4952		21.3000
0.8708		0.2490		0.0000		1.7919		27.9382		0.4980		21.4000
0.8746		0.2502		0.0000		1.8003		28.0601		0.5004		21.5000
0.8786		0.2516		0.0000		1.8086		28.1884		0.5032		21.6000
0.8828		0.2528		0.0000		1.8170		28.3232		0.5056		21.7000
0.8872		0.2542		0.0000		1.8253		28.4644		0.5084		21.8000
0.8914		0.2556		0.0000		1.8334		28.5991		0.5112		21.9000
0.8954		0.2570		0.0000		1.8418		28.7274		0.5140		22.0000
0.8992		0.2582		0.0000		1.8501		28.8494		0.5164		22.1000
0.9030		0.2594		0.0000		1.8585		28.9713		0.5188		22.2000
0.9072		0.2608		0.0000		1.8671		29.1060		0.5216		22.3000
0.9112		0.2620		0.0000		1.8755		29.2344		0.5240		22.4000
0.9154		0.2632		0.0000		1.8835		29.3691		0.5264		22.5000
0.9198		0.2646		0.0000		1.8919		29.5103		0.5292		22.6000
0.9236		0.2660		0.0000		1.9002		29.6322		0.5320		22.7001
0.9276		0.2674		0.0000		1.9086		29.7605		0.5348		22.8001
0.9314		0.2686		0.0000		1.9169		29.8824		0.5372		22.9001
0.9354		0.2700		0.0000		1.9253		30.0108		0.5400		23.0001
0.9394		0.2714		0.0000		1.9336		30.1391		0.5428		23.1001
0.9436		0.2726		0.0000		1.9420		30.2739		0.5452		23.2001
0.9478		0.2738		0.0000		1.9503		30.4086		0.5476		23.3001
0.9518		0.2752		0.0000		1.9584		30.5369		0.5504		23.4001
0.9556		0.2766		0.0000		1.9668		30.6589		0.5532		23.5001
0.9592		0.2780		0.0000		1.9751		30.7744		0.5560		23.6001
0.9632		0.2792		0.0000		1.9837		30.9027		0.5584		23.7001
0.9674		0.2806		0.0000		1.9921		31.0374		0.5612		23.8001
0.9718		0.2820		0.0000		2.0004		31.1786		0.5640		23.9001
0.9758		0.2834		0.0000		2.0088		31.3069		0.5668		24.0001
0.9794		0.2846		0.0000		2.0169		31.4224		0.5692		24.1001
0.9832		0.2860		0.0000		2.0252		31.5444		0.5720		24.2001
0.9870		0.2874		0.0000		2.0336		31.6663		0.5748		24.3001
0.9908		0.2886		0.0000		2.0419		31.7882		0.5772		24.4001
0.9948		0.2900		0.0000		2.0503		31.9165		0.5800		24.5001
0.9992		0.2914		0.0000		2.0586		32.0577		0.5828		24.6001
1.0032		0.2928		0.0000		2.0670		32.1860		0.5856		24.7001
1.0070		0.2942		0.0000		2.0753		32.3079		0.5884		24.8001
1.0108		0.2956		0.0000		2.0837		32.4299		0.5912		24.9001
1.0144		0.2968		0.0000		2.0917		32.5454		0.5936		25.0001
1.0184		0.2982		0.0000		2.1001		32.6737		0.5964		25.1001
1.0226		0.2996		0.0000		2.1087		32.8085		0.5992		25.2001
1.0270		0.3010		0.0000		2.1171		32.9496		0.6020		25.3001
1.0310		0.3024		0.0000		2.1254		33.0780		0.6048		25.4001
1.0348		0.3036		0.0000		2.1338		33.1999		0.6072		25.5001
1.0386		0.3048		0.0000		2.1419		33.3218		0.6096		25.6001
1.0422		0.3062		0.0000		2.1502		33.4373		0.6124		25.7001
1.0460		0.3076		0.0000		2.1586		33.5592		0.6152		25.8001
1.0502		0.3090		0.0000		2.1669		33.6940		0.6180		25.9001
1.0544		0.3102		0.0000		2.1753		33.8287		0.6204		26.0001
1.0584		0.3116		0.0000		2.1836		33.9570		0.6232		26.1001
1.0622		0.3130		0.0000		2.1920		34.0789		0.6260		26.2001
1.0662		0.3144		0.0000		2.2003		34.2073		0.6288		26.3001
1.0698		0.3158		0.0000		2.2087		34.3228		0.6316		26.4001
1.0738		0.3172		0.0000		2.2167		34.4511		0.6344		26.5001
1.0778		0.3184		0.0000		2.2254		34.5795		0.6368		26.6001
1.0820		0.3198		0.0000		2.2334		34.7142		0.6396		26.7001
1.0858		0.3212		0.0000		2.2421		34.8361		0.6424		26.8001
1.0894		0.3226		0.0000		2.2504		34.9516		0.6452		26.9001
1.0932		0.3240		0.0000		2.2588		35.0735		0.6480		27.0001
1.0968		0.3254		0.0000		2.2668		35.1890		0.6508		27.1001
1.1010		0.3268		0.0000		2.2752		35.3238		0.6536		27.2001
1.1050		0.3282		0.0000		2.2836		35.4521		0.6564		27.3001
1.1084		0.3296		0.0000		2.2916		35.5612		0.6592		27.4001
1.1132		0.3310		0.0000		2.3003		35.7152		0.6620		27.5001
1.1172		0.3324		0.0000		2.3086		35.8435		0.6648		27.6001
1.1210		0.3340		0.0000		2.3170		35.9655		0.6680		27.7001
1.1246		0.3354		0.0000		2.3253		36.0810		0.6708		27.8001
1.1284		0.3368		0.0000		2.3337		36.2029		0.6736		27.9001
1.1326		0.3382		0.0000		2.3420		36.3376		0.6764		28.0001
1.1368		0.3396		0.0000		2.3501		36.4724		0.6792		28.1001
1.1406		0.3408		0.0000		2.3587		36.5943		0.6816		28.2001
1.1444		0.3424		0.0000		2.3671		36.7162		0.6848		28.3001
1.1480		0.3438		0.0000		2.3754		36.8317		0.6876		28.4001
1.1516		0.3452		0.0000		2.3838		36.9472		0.6904		28.5001
1.1554		0.3468		0.0000		2.3921		37.0691		0.6936		28.6001
1.1596		0.3482		0.0000		2.4002		37.2039		0.6964		28.7001
1.1634		0.3494		0.0000		2.4085		37.3258		0.6988		28.8001
1.1672		0.3508		0.0000		2.4169		37.4477		0.7016		28.9001
1.1708		0.3522		0.0000		2.4252		37.5632		0.7044		29.0001
1.1744		0.3536		0.0000		2.4336		37.6787		0.7072		29.1001
1.1782		0.3548		0.0000		2.4422		37.8006		0.7096		29.2001
1.1820		0.3562		0.0000		2.4503		37.9225		0.7124		29.3001
1.1858		0.3578		0.0000		2.4587		38.0445		0.7156		29.4001
1.1896		0.3592		0.0000		2.4670		38.1664		0.7184		29.5001
1.1932		0.3608		0.0000		2.4754		38.2819		0.7216		29.6001
1.1968		0.3620		0.0000		2.4837		38.3974		0.7240		29.7001
1.2004		0.3636		0.0000		2.4921		38.5129		0.7272		29.8001
1.2040		0.3650		0.0000		2.5004		38.6284		0.7300		29.9001
1.2078		0.3664		0.0000		2.5088		38.7503		0.7328		30.0001
1.2118		0.3676		0.0000		2.5171		38.8786		0.7352		30.1001
1.2156		0.3692		0.0000		2.5252		39.0005		0.7384		30.2001
1.2192		0.3706		0.0000		2.5335		39.1160		0.7412		30.3001
1.2230		0.3722		0.0000		2.5419		39.2380		0.7444		30.4001
1.2264		0.3736		0.0000		2.5502		39.3470		0.7472		30.5001
1.2300		0.3752		0.0000		2.5586		39.4625		0.7504		30.6001
1.2336		0.3766		0.0000		2.5669		39.5780		0.7532		30.7001
1.2376		0.3780		0.0000		2.5753		39.7064		0.7560		30.8001
1.2412		0.3794		0.0000		2.5836		39.8219		0.7588		30.9001
1.2448		0.3806		0.0000		2.5920		39.9374		0.7612		31.0001
1.2484		0.3820		0.0000		2.6004		40.0529		0.7640		31.1001
1.2518		0.3834		0.0000		2.6087		40.1620		0.7668		31.2001
1.2554		0.3850		0.0000		2.6171		40.2775		0.7700		31.3001
1.2592		0.3866		0.0000		2.6254		40.3994		0.7732		31.4001
1.2630		0.3880		0.0000		2.6338		40.5213		0.7760		31.5001
1.2670		0.3894		0.0000		2.6421		40.6496		0.7788		31.6001
1.2702		0.3910		0.0000		2.6502		40.7523		0.7820		31.7001
1.2736		0.3922		0.0000		2.6585		40.8614		0.7844		31.8001
1.2768		0.3934		0.0000		2.6669		40.9640		0.7868		31.9001
1.2804		0.3950		0.0000		2.6752		41.0795		0.7900		32.0001
1.2840		0.3964		0.0000		2.6836		41.1950		0.7928		32.1001
1.2880		0.3978		0.0000		2.6922		41.3234		0.7956		32.2001
1.2918		0.3994		0.0000		2.7006		41.4453		0.7988		32.3001
1.2950		0.4008		0.0000		2.7086		41.5480		0.8016		32.4001
1.2986		0.4024		0.0000		2.7170		41.6635		0.8048		32.5001
1.3016		0.4038		0.0000		2.7253		41.7597		0.8076		32.6001
1.3052		0.4052		0.0000		2.7337		41.8752		0.8104		32.7001
1.3088		0.4066		0.0000		2.7420		41.9907		0.8132		32.8001
1.3128		0.4082		0.0000		2.7504		42.1190		0.8164		32.9001
1.3162		0.4096		0.0000		2.7588		42.2281		0.8192		33.0001
1.3198		0.4112		0.0000		2.7671		42.3436		0.8224		33.1001
1.3230		0.4128		0.0000		2.7755		42.4463		0.8256		33.2001
1.3264		0.4142		0.0000		2.7835		42.5554		0.8284		33.3001
1.3300		0.4158		0.0000		2.7919		42.6709		0.8316		33.4001
1.3340		0.4174		0.0000		2.8002		42.7992		0.8348		33.5001
1.3378		0.4190		0.0000		2.8086		42.9211		0.8380		33.6001
1.3414		0.4204		0.0000		2.8172		43.0366		0.8408		33.7001
1.3448		0.4218		0.0000		2.8256		43.1457		0.8436		33.8001
1.3480		0.4232		0.0000		2.8336		43.2484		0.8464		33.9001
1.3514		0.4246		0.0000		2.8420		43.3575		0.8492		34.0001
1.3550		0.4262		0.0000		2.8500		43.4730		0.8524		34.1001
1.3586		0.4278		0.0000		2.8587		43.5885		0.8556		34.2001
1.3622		0.4294		0.0000		2.8670		43.7040		0.8588		34.3000
1.3656		0.4310		0.0000		2.8754		43.8130		0.8620		34.4000
1.3690		0.4324		0.0000		2.8837		43.9221		0.8648		34.5000
1.3722		0.4340		0.0000		2.8921		44.0248		0.8680		34.6000
1.3754		0.4354		0.0000		2.9004		44.1275		0.8708		34.7000
1.3790		0.4368		0.0000		2.9085		44.2430		0.8736		34.8000
1.3824		0.4382		0.0000		2.9169		44.3520		0.8764		34.9000
1.3860		0.4396		0.0000		2.9252		44.4675		0.8792		35.0000
1.3894		0.4412		0.0000		2.9339		44.5766		0.8824		35.1000
1.3926		0.4426		0.0000		2.9422		44.6793		0.8852		35.2000
1.3958		0.4442		0.0000		2.9506		44.7820		0.8884		35.3000
1.3990		0.4458		0.0000		2.9586		44.8846		0.8916		35.4000
1.4026		0.4474		0.0000		2.9670		45.0001		0.8948		35.5000
1.4062		0.4488		0.0000		2.9753		45.1156		0.8976		35.6000
1.4098		0.4502		0.0000		2.9837		45.2311		0.9004		35.7000
1.4132		0.4518		0.0000		2.9920		45.3402		0.9036		35.8000
1.4164		0.4534		0.0000		3.0004		45.4429		0.9068		35.9000
1.4194		0.4550		0.0000		3.0087		45.5391		0.9100		36.0000
1.4228		0.4566		0.0000		3.0171		45.6482		0.9132		36.1000
1.4262		0.4580		0.0000		3.0254		45.7573		0.9160		36.2000
1.4296		0.4596		0.0000		3.0335		45.8664		0.9192		36.3000
1.4332		0.4610		0.0000		3.0419		45.9819		0.9220		36.4000
1.4364		0.4624		0.0000		3.0502		46.0845		0.9248		36.5000
1.4396		0.4640		0.0000		3.0586		46.1872		0.9280		36.6000
1.4428		0.4656		0.0000		3.0672		46.2899		0.9312		36.7000
1.4460		0.4672		0.0000		3.0756		46.3925		0.9344		36.8000
1.4492		0.4686		0.0000		3.0839		46.4952		0.9372		36.9000
1.4530		0.4702		0.0000		3.0920		46.6171		0.9404		37.0000
1.4562		0.4720		0.0000		3.1003		46.7198		0.9440		37.1000
1.4594		0.4734		0.0000		3.1087		46.8225		0.9468		37.2000
1.4626		0.4750		0.0000		3.1170		46.9251		0.9500		37.3000
1.4656		0.4766		0.0000		3.1254		47.0214		0.9532		37.4000
1.4688		0.4782		0.0000		3.1337		47.1240		0.9564		37.5000
1.4720		0.4796		0.0000		3.1421		47.2267		0.9592		37.6000
1.4756		0.4812		0.0000		3.1504		47.3422		0.9624		37.7000
1.4790		0.4828		0.0000		3.1588		47.4513		0.9656		37.8000
1.4820		0.4844		0.0000		3.1668		47.5476		0.9688		37.9000
1.4850		0.4860		0.0000		3.1752		47.6438		0.9720		38.0000
1.4878		0.4876		0.0000		3.1836		47.7336		0.9752		38.1000
1.4910		0.4892		0.0000		3.1922		47.8363		0.9784		38.2000
1.4942		0.4908		0.0000		3.2005		47.9390		0.9816		38.3000
1.4976		0.4922		0.0000		3.2089		48.0480		0.9844		38.4000
1.5012		0.4938		0.0000		3.2170		48.1635		0.9876		38.5000
1.5042		0.4954		0.0000		3.2253		48.2598		0.9908		38.6000
1.5072		0.4970		0.0000		3.2337		48.3561		0.9940		38.7000
1.5100		0.4986		0.0000		3.2420		48.4459		0.9972		38.8000
1.5132		0.5002		0.0000		3.2504		48.5486		1.0004		38.9000
1.5164		0.5018		0.0000		3.2587		48.6512		1.0036		39.0000
1.5198		0.5036		0.0000		3.2671		48.7603		1.0072		39.1000
1.5230		0.5050		0.0000		3.2754		48.8630		1.0100		39.2000
1.5260		0.5066		0.0000		3.2838		48.9592		1.0132		39.3000
1.5290		0.5082		0.0000		3.2918		49.0555		1.0164		39.4000
1.5318		0.5100		0.0000		3.3002		49.1453		1.0200		39.5000
1.5348		0.5116		0.0000		3.3085		49.2416		1.0232		39.6000
1.5380		0.5132		0.0000		3.3172		49.3442		1.0264		39.7000
1.5414		0.5148		0.0000		3.3255		49.4533		1.0296		39.8000
1.5446		0.5164		0.0000		3.3339		49.5560		1.0328		39.9000
1.5474		0.5180		0.0000		3.3420		49.6458		1.0360		40.0000
1.5504		0.5196		0.0000		3.3503		49.7421		1.0392		40.1000
1.5530		0.5212		0.0000		3.3587		49.8255		1.0424		40.2000
1.5558		0.5226		0.0000		3.3670		49.9153		1.0452		40.3000
1.5588		0.5242		0.0000		3.3754		50.0116		1.0484		40.4000
1.5620		0.5258		0.0000		3.3837		50.1142		1.0516		40.5000
1.5650		0.5274		0.0000		3.3921		50.2105		1.0548		40.6000
1.5678		0.5290		0.0000		3.4004		50.3003		1.0580		40.7000
1.5706		0.5306		0.0000		3.4088		50.3901		1.0612		40.7999
1.5734		0.5322		0.0000		3.4168		50.4800		1.0644		40.8999
1.5764		0.5338		0.0000		3.4252		50.5762		1.0676		40.9999
1.5794		0.5352		0.0000		3.4338		50.6725		1.0704		41.0999
1.5824		0.5370		0.0000		3.4422		50.7687		1.0740		41.1999
1.5854		0.5386		0.0000		3.4505		50.8650		1.0772		41.2999
1.5880		0.5402		0.0000		3.4589		50.9484		1.0804		41.3999
1.5910		0.5418		0.0000		3.4672		51.0446		1.0836		41.4999
1.5938		0.5434		0.0000		3.4753		51.1345		1.0868		41.5999
1.5966		0.5450		0.0000		3.4836		51.2243		1.0900		41.6999
1.5996		0.5468		0.0000		3.4920		51.3206		1.0936		41.7999
1.6028		0.5484		0.0000		3.5004		51.4232		1.0968		41.8999
1.6058		0.5500		0.0000		3.5087		51.5195		1.1000		41.9999
1.6086		0.5516		0.0000		3.5171		51.6093		1.1032		42.0999
1.6112		0.5534		0.0000		3.5254		51.6927		1.1068		42.1999
1.6138		0.5550		0.0000		3.5338		51.7761		1.1100		42.2999
1.6168		0.5566		0.0000		3.5418		51.8724		1.1132		42.3999
1.6196		0.5582		0.0000		3.5505		51.9622		1.1164		42.4999
1.6226		0.5600		0.0000		3.5585		52.0585		1.1200		42.5999
1.6256		0.5616		0.0000		3.5672		52.1547		1.1232		42.6999
1.6282		0.5632		0.0000		3.5755		52.2381		1.1264		42.7999
1.6312		0.5650		0.0000		3.5839		52.3344		1.1300		42.8999
1.6338		0.5664		0.0000		3.5922		52.4178		1.1328		42.9999
1.6364		0.5680		0.0000		3.6003		52.5012		1.1360		43.0999
1.6392		0.5698		0.0000		3.6086		52.5911		1.1396		43.1999
1.6422		0.5714		0.0000		3.6170		52.6873		1.1428		43.2999
1.6448		0.5730		0.0000		3.6253		52.7707		1.1460		43.3999
1.6474		0.5746		0.0000		3.6337		52.8541		1.1492		43.4999
1.6502		0.5762		0.0000		3.6423		52.9440		1.1524		43.5999
1.6528		0.5780		0.0000		3.6504		53.0274		1.1560		43.6999
1.6558		0.5798		0.0000		3.6588		53.1236		1.1596		43.7999
1.6588		0.5816		0.0000		3.6671		53.2199		1.1632		43.8999
1.6616		0.5832		0.0000		3.6752		53.3097		1.1664		43.9999
1.6642		0.5850		0.0000		3.6838		53.3931		1.1700		44.0999
1.6666		0.5868		0.0000		3.6922		53.4701		1.1736		44.1999
1.6690		0.5886		0.0000		3.7005		53.5471		1.1772		44.2999
1.6718		0.5904		0.0000		3.7089		53.6370		1.1808		44.3999
1.6742		0.5920		0.0000		3.7172		53.7140		1.1840		44.4999
1.6772		0.5936		0.0000		3.7253		53.8102		1.1872		44.5999
1.6800		0.5954		0.0000		3.7336		53.9001		1.1908		44.6999
1.6822		0.5970		0.0000		3.7420		53.9706		1.1940		44.7999
1.6848		0.5986		0.0000		3.7503		54.0541		1.1972		44.8999
1.6874		0.6002		0.0000		3.7587		54.1375		1.2004		44.9999
1.6898		0.6020		0.0000		3.7673		54.2145		1.2040		45.0999
1.6924		0.6038		0.0000		3.7757		54.2979		1.2076		45.1999
1.6954		0.6056		0.0000		3.7837		54.3941		1.2112		45.2999
1.6980		0.6072		0.0000		3.7921		54.4776		1.2144		45.3999
1.7004		0.6088		0.0000		3.8004		54.5546		1.2176		45.4999
1.7028		0.6104		0.0000		3.8088		54.6316		1.2208		45.5999
1.7050		0.6122		0.0000		3.8172		54.7021		1.2244		45.6999
1.7076		0.6140		0.0000		3.8255		54.7856		1.2280		45.7999
1.7102		0.6158		0.0000		3.8339		54.8690		1.2316		45.8999
1.7132		0.6174		0.0000		3.8422		54.9652		1.2348		45.9999
1.7158		0.6192		0.0000		3.8506		55.0486		1.2384		46.0999
1.7182		0.6208		0.0000		3.8586		55.1256		1.2416		46.1999
1.7200		0.6226		0.0000		3.8667		55.1834		1.2452		46.2999
1.7222		0.6244		0.0000		3.8753		55.2540		1.2488		46.3999
1.7248		0.6262		0.0000		3.8837		55.3374		1.2524		46.4999
1.7272		0.6280		0.0000		3.8920		55.4144		1.2560		46.5999
1.7300		0.6298		0.0000		3.9004		55.5042		1.2596		46.6999
1.7326		0.6314		0.0000		3.9087		55.5876		1.2628		46.7999
1.7350		0.6332		0.0000		3.9168		55.6646		1.2664		46.8999
1.7372		0.6350		0.0000		3.9252		55.7352		1.2700		46.9999
1.7394		0.6368		0.0000		3.9335		55.8058		1.2736		47.0999
1.7420		0.6388		0.0000		3.9419		55.8892		1.2776		47.1999
1.7444		0.6404		0.0000		3.9502		55.9662		1.2808		47.2999
1.7472		0.6422		0.0000		3.9588		56.0561		1.2844		47.3998
1.7498		0.6440		0.0000		3.9672		56.1395		1.2880		47.4998
1.7520		0.6458		0.0000		3.9753		56.2101		1.2916		47.5998
1.7544		0.6476		0.0000		3.9836		56.2871		1.2952		47.6998
1.7564		0.6494		0.0000		3.9920		56.3512		1.2988		47.7998
1.7588		0.6512		0.0000		4.0003		56.4282		1.3024		47.8998
1.7610		0.6530		0.0000		4.0087		56.4988		1.3060		47.9998
1.7638		0.6546		0.0000		4.0170		56.5886		1.3092		48.0998
1.7662		0.6566		0.0000		4.0254		56.6656		1.3132		48.1998
1.7682		0.6584		0.0000		4.0337		56.7298		1.3168		48.2998
1.7706		0.6602		0.0000		4.0418		56.8068		1.3204		48.3998
1.7726		0.6620		0.0000		4.0501		56.8710		1.3240		48.4998
1.7748		0.6636		0.0000		4.0585		56.9416		1.3272		48.5998
1.7772		0.6654		0.0000		4.0668		57.0186		1.3308		48.6998
1.7798		0.6672		0.0000		4.0752		57.1020		1.3344		48.7998
1.7820		0.6690		0.0000		4.0838		57.1726		1.3380		48.8998
1.7840		0.6708		0.0000		4.0919		57.2367		1.3416		48.9998
1.7862		0.6728		0.0000		4.1003		57.3073		1.3456		49.0998
1.7882		0.6746		0.0000		4.1086		57.3715		1.3492		49.1998
1.7904		0.6764		0.0000		4.1170		57.4421		1.3528		49.2998
1.7926		0.6782		0.0000		4.1253		57.5126		1.3564		49.3998
1.7950		0.6800		0.0000		4.1337		57.5896		1.3600		49.4998
1.7974		0.6820		0.0000		4.1420		57.6666		1.3640		49.5998
1.7998		0.6838		0.0000		4.1504		57.7436		1.3676		49.6998
1.8018		0.6854		0.0000		4.1587		57.8078		1.3708		49.7998
1.8038		0.6872		0.0000		4.1668		57.8720		1.3744		49.8998
1.8060		0.6890		0.0000		4.1751		57.9426		1.3780		49.9998
1.8082		0.6910		0.0000		4.1835		58.0131		1.3820		50.0998
1.8108		0.6928		0.0000		4.1918		58.0966		1.3856		50.1998
1.8130		0.6948		0.0000		4.2005		58.1671		1.3896		50.2998
1.8150		0.6966		0.0000		4.2088		58.2313		1.3932		50.3998
1.8172		0.6984		0.0000		4.2172		58.3019		1.3968		50.4998
1.8192		0.7002		0.0000		4.2252		58.3661		1.4004		50.5998
1.8212		0.7018		0.0000		4.2336		58.4302		1.4036		50.6998
1.8234		0.7036		0.0000		4.2420		58.5008		1.4072		50.7998
1.8258		0.7054		0.0000		4.2503		58.5778		1.4108		50.8998
1.8280		0.7074		0.0000		4.2587		58.6484		1.4148		50.9998
1.8300		0.7092		0.0000		4.2670		58.7126		1.4184		51.0998
1.8320		0.7112		0.0000		4.2754		58.7767		1.4224		51.1998
1.8340		0.7132		0.0000		4.2837		58.8409		1.4264		51.2998
1.8360		0.7152		0.0000		4.2921		58.9051		1.4304		51.3998
1.8382		0.7170		0.0000		4.3001		58.9756		1.4340		51.4998
1.8404		0.7190		0.0000		4.3085		59.0462		1.4380		51.5998
1.8426		0.7208		0.0000		4.3168		59.1168		1.4416		51.6998
1.8446		0.7226		0.0000		4.3252		59.1810		1.4452		51.7998
1.8464		0.7244		0.0000		4.3338		59.2387		1.4488		51.8998
1.8482		0.7262		0.0000		4.3422		59.2965		1.4524		51.9998
1.8502		0.7282		0.0000		4.3502		59.3606		1.4564		52.0998
1.8524		0.7302		0.0000		4.3586		59.4312		1.4604		52.1998
1.8546		0.7322		0.0000		4.3669		59.5018		1.4644		52.2998
1.8566		0.7340		0.0000		4.3753		59.5660		1.4680		52.3998
1.8586		0.7358		0.0000		4.3836		59.6301		1.4716		52.4998
1.8606		0.7378		0.0000		4.3920		59.6943		1.4756		52.5998
1.8624		0.7396		0.0000		4.4004		59.7521		1.4792		52.6998
1.8642		0.7414		0.0000		4.4087		59.8098		1.4828		52.7998
1.8664		0.7434		0.0000		4.4171		59.8804		1.4868		52.8998
1.8686		0.7454		0.0000		4.4251		59.9510		1.4908		52.9998
1.8702		0.7472		0.0000		4.4335		60.0023		1.4944		53.0998
1.8720		0.7492		0.0000		4.4418		60.0601		1.4984		53.1998
1.8740		0.7510		0.0000		4.4502		60.1242		1.5020		53.2998
1.8758		0.7530		0.0000		4.4588		60.1820		1.5060		53.3998
1.8776		0.7550		0.0000		4.4672		60.2397		1.5100		53.4998
1.8798		0.7570		0.0000		4.4752		60.3103		1.5140		53.5998
1.8818		0.7588		0.0000		4.4836		60.3745		1.5176		53.6998
1.8838		0.7610		0.0000		4.4919		60.4386		1.5220		53.7998
1.8854		0.7628		0.0000		4.5003		60.4900		1.5256		53.8997
1.8872		0.7648		0.0000		4.5086		60.5477		1.5296		53.9997
1.8892		0.7668		0.0000		4.5170		60.6119		1.5336		54.0997
1.8910		0.7688		0.0000		4.5253		60.6696		1.5376		54.1997
1.8934		0.7708		0.0000		4.5337		60.7466		1.5416		54.2997
1.8954		0.7728		0.0000		4.5420		60.8108		1.5456		54.3997
1.8972		0.7748		0.0000		4.5501		60.8686		1.5496		54.4997
1.8988		0.7768		0.0000		4.5585		60.9199		1.5536		54.5997
1.9006		0.7786		0.0000		4.5668		60.9776		1.5572		54.6997
1.9024		0.7806		0.0000		4.5755		61.0354		1.5612		54.7997
1.9044		0.7826		0.0000		4.5838		61.0996		1.5652		54.8997
1.9064		0.7844		0.0000		4.5922		61.1637		1.5688		54.9997
1.9082		0.7864		0.0000		4.6005		61.2215		1.5728		55.0997
1.9098		0.7884		0.0000		4.6086		61.2728		1.5768		55.1997
1.9114		0.7902		0.0000		4.6169		61.3241		1.5804		55.2997
1.9128		0.7922		0.0000		4.6253		61.3691		1.5844		55.3997
1.9146		0.7942		0.0000		4.6336		61.4268		1.5884		55.4997
1.9164		0.7964		0.0000		4.6420		61.4846		1.5928		55.5997
1.9184		0.7984		0.0000		4.6503		61.5487		1.5968		55.6997
1.9202		0.8004		0.0000		4.6587		61.6065		1.6008		55.7997
1.9218		0.8026		0.0000		4.6670		61.6578		1.6052		55.8997
1.9234		0.8046		0.0000		4.6754		61.7091		1.6092		55.9997
1.9250		0.8068		0.0000		4.6835		61.7605		1.6136		56.0997
1.9268		0.8086		0.0000		4.6918		61.8182		1.6172		56.1997
1.9284		0.8108		0.0000		4.7004		61.8696		1.6216		56.2997
1.9304		0.8128		0.0000		4.7088		61.9337		1.6256		56.3997
1.9322		0.8150		0.0000		4.7172		61.9915		1.6300		56.4997
1.9336		0.8170		0.0000		4.7255		62.0364		1.6340		56.5997
1.9352		0.8190		0.0000		4.7336		62.0877		1.6380		56.6997
1.9364		0.8210		0.0000		4.7419		62.1262		1.6420		56.7997
1.9380		0.8230		0.0000		4.7503		62.1776		1.6460		56.8997
1.9398		0.8250		0.0000		4.7586		62.2353		1.6500		56.9997
1.9416		0.8270		0.0000		4.7670		62.2931		1.6540		57.0997
1.9434		0.8288		0.0000		4.7753		62.3508		1.6576		57.1997
1.9448		0.8310		0.0000		4.7837		62.3957		1.6620		57.2997
1.9462		0.8330		0.0000		4.7920		62.4407		1.6660		57.3997
1.9476		0.8350		0.0000		4.8004		62.4856		1.6700		57.4997
1.9492		0.8372		0.0000		4.8084		62.5369		1.6744		57.5997
1.9508		0.8392		0.0000		4.8171		62.5882		1.6784		57.6997
1.9526		0.8414		0.0000		4.8254		62.6460		1.6828		57.7997
1.9544		0.8434		0.0000		4.8338		62.7037		1.6868		57.8997
1.9558		0.8456		0.0000		4.8421		62.7486		1.6912		57.9997
1.9574		0.8476		0.0000		4.8505		62.8000		1.6952		58.0997
1.9588		0.8498		0.0000		4.8586		62.8449		1.6996		58.1997
1.9604		0.8520		0.0000		4.8669		62.8962		1.7040		58.2997
1.9622		0.8540		0.0000		4.8753		62.9540		1.7080		58.3997
1.9640		0.8562		0.0000		4.8836		63.0117		1.7124		58.4997
1.9654		0.8584		0.0000		4.8920		63.0566		1.7168		58.5997
1.9668		0.8604		0.0000		4.9003		63.1016		1.7208		58.6997
1.9682		0.8624		0.0000		4.9087		63.1465		1.7248		58.7997
1.9694		0.8646		0.0000		4.9170		63.1850		1.7292		58.8997
1.9710		0.8668		0.0000		4.9254		63.2363		1.7336		58.9997
1.9724		0.8688		0.0000		4.9337		63.2812		1.7376		59.0997
1.9742		0.8708		0.0000		4.9418		63.3390		1.7416		59.1997
1.9756		0.8730		0.0000		4.9504		63.3839		1.7460		59.2997
1.9768		0.8750		0.0000		4.9588		63.4224		1.7500		59.3997
1.9782		0.8772		0.0000		4.9671		63.4673		1.7544		59.4997
1.9794		0.8792		0.0000		4.9755		63.5058		1.7584		59.5997
1.9808		0.8814		0.0000		4.9838		63.5507		1.7628		59.6997
1.9822		0.8836		0.0000		4.9919		63.5956		1.7672		59.7997
1.9840		0.8858		0.0000		5.0003		63.6534		1.7716		59.8997
1.9854		0.8878		0.0000		5.0086		63.6983		1.7756		59.9997
1.9864		0.8900		0.0000		5.0170		63.7304		1.7800		60.0997
1.9878		0.8922		0.0000		5.0253		63.7753		1.7844		60.1997
1.9890		0.8942		0.0000		5.0340		63.8138		1.7884		60.2997
1.9904		0.8964		0.0000		5.0420		63.8587		1.7928		60.3997
1.9920		0.8984		0.0000		5.0504		63.9101		1.7968		60.4996
1.9936		0.9006		0.0000		5.0584		63.9614		1.8012		60.5996
1.9948		0.9026		0.0000		5.0671		63.9999		1.8052		60.6996
1.9960		0.9050		0.0000		5.0754		64.0384		1.8100		60.7996
1.9972		0.9070		0.0000		5.0838		64.0769		1.8140		60.8996
1.9984		0.9092		0.0000		5.0921		64.1154		1.8184		60.9996
1.9996		0.9114		0.0000		5.1005		64.1539		1.8228		61.0996
2.0012		0.9138		0.0000		5.1088		64.2052		1.8276		61.1996
2.0028		0.9158		0.0000		5.1169		64.2566		1.8316		61.2996
2.0040		0.9180		0.0000		5.1252		64.2951		1.8360		61.3996
2.0054		0.9202		0.0000		5.1336		64.3400		1.8404		61.4996
2.0064		0.9224		0.0000		5.1420		64.3721		1.8448		61.5996
2.0076		0.9246		0.0000		5.1506		64.4106		1.8492		61.6996
2.0088		0.9268		0.0000		5.1589		64.4491		1.8536		61.7996
2.0104		0.9292		0.0000		5.1670		64.5004		1.8584		61.8996
2.0118		0.9314		0.0000		5.1754		64.5453		1.8628		61.9996
2.0130		0.9338		0.0000		5.1837		64.5838		1.8676		62.0996
2.0142		0.9360		0.0000		5.1921		64.6223		1.8720		62.1996
2.0152		0.9382		0.0000		5.2004		64.6544		1.8764		62.2996
2.0164		0.9404		0.0000		5.2088		64.6929		1.8808		62.3996
2.0178		0.9426		0.0000		5.2171		64.7378		1.8852		62.4996
2.0192		0.9448		0.0000		5.2255		64.7827		1.8896		62.5996
2.0204		0.9470		0.0000		5.2338		64.8212		1.8940		62.6996
2.0216		0.9492		0.0000		5.2422		64.8597		1.8984		62.7996
2.0226		0.9516		0.0000		5.2502		64.8918		1.9032		62.8996
2.0236		0.9538		0.0000		5.2586		64.9239		1.9076		62.9996
2.0250		0.9562		0.0000		5.2669		64.9688		1.9124		63.0996
2.0262		0.9582		0.0000		5.2753		65.0073		1.9164		63.1996
2.0278		0.9604		0.0000		5.2839		65.0587		1.9208		63.2996
2.0290		0.9626		0.0000		5.2923		65.0972		1.9252		63.3996
2.0298		0.9648		0.0000		5.3006		65.1228		1.9296		63.4996
2.0310		0.9670		0.0000		5.3087		65.1613		1.9340		63.5996
2.0318		0.9694		0.0000		5.3171		65.1870		1.9388		63.6996
2.0328		0.9716		0.0000		5.3254		65.2191		1.9432		63.7996
2.0340		0.9738		0.0000		5.3338		65.2576		1.9476		63.8996
2.0354		0.9762		0.0000		5.3421		65.3025		1.9524		63.9996
2.0366		0.9784		0.0000		5.3505		65.3410		1.9568		64.0996
2.0374		0.9806		0.0000		5.3588		65.3667		1.9612		64.1996
2.0384		0.9830		0.0000		5.3672		65.3987		1.9660		64.2996
2.0392		0.9854		0.0000		5.3752		65.4244		1.9708		64.3996
2.0402		0.9876		0.0000		5.3836		65.4565		1.9752		64.4996
2.0414		0.9900		0.0000		5.3919		65.4950		1.9800		64.5996
2.0428		0.9922		0.0000		5.4006		65.5399		1.9844		64.6996
2.0440		0.9946		0.0000		5.4089		65.5784		1.9892		64.7996
2.0448		0.9968		0.0000		5.4173		65.6041		1.9936		64.8996
2.0456		0.9992		0.0000		5.4253		65.6297		1.9984		64.9996
2.0464		1.0012		0.0000		5.4337		65.6554		2.0024		65.0996
2.0472		1.0034		0.0000		5.4420		65.6811		2.0068		65.1996
2.0482		1.0058		0.0000		5.4504		65.7132		2.0116		65.2996
2.0496		1.0080		0.0000		5.4588		65.7581		2.0160		65.3996
2.0506		1.0104		0.0000		5.4671		65.7902		2.0208		65.4996
2.0514		1.0126		0.0000		5.4755		65.8158		2.0252		65.5996
2.0522		1.0150		0.0000		5.4838		65.8415		2.0300		65.6996
2.0530		1.0174		0.0000		5.4922		65.8671		2.0348		65.7996
2.0538		1.0196		0.0000		5.5002		65.8928		2.0392		65.8996
2.0548		1.0220		0.0000		5.5086		65.9249		2.0440		65.9996
2.0560		1.0242		0.0000		5.5166		65.9634		2.0484		66.0996
2.0570		1.0266		0.0000		5.5256		65.9955		2.0532		66.1996
2.0578		1.0288		0.0000		5.5339		66.0212		2.0576		66.2996
2.0586		1.0312		0.0000		5.5423		66.0468		2.0624		66.3996
2.0594		1.0336		0.0000		5.5503		66.0725		2.0672		66.4996
2.0602		1.0360		0.0000		5.5587		66.0982		2.0720		66.5996
2.0612		1.0382		0.0000		5.5670		66.1302		2.0764		66.6996
2.0624		1.0406		0.0000		5.5754		66.1687		2.0812		66.7996
2.0636		1.0430		0.0000		5.5837		66.2072		2.0860		66.8996
2.0642		1.0452		0.0000		5.5921		66.2265		2.0904		66.9995
2.0650		1.0474		0.0000		5.6004		66.2522		2.0948		67.0995
2.0656		1.0498		0.0000		5.6088		66.2714		2.0996		67.1995
2.0664		1.0522		0.0000		5.6172		66.2971		2.1044		67.2995
2.0674		1.0546		0.0000		5.6252		66.3292		2.1092		67.3995
2.0686		1.0570		0.0000		5.6336		66.3677		2.1140		67.4995
2.0694		1.0592		0.0000		5.6419		66.3933		2.1184		67.5995
2.0700		1.0616		0.0000		5.6503		66.4126		2.1232		67.6995
2.0708		1.0640		0.0000		5.6589		66.4382		2.1280		67.7995
2.0716		1.0664		0.0000		5.6673		66.4639		2.1328		67.8995
2.0724		1.0688		0.0000		5.6756		66.4896		2.1376		67.9995
2.0734		1.0712		0.0000		5.6837		66.5217		2.1424		68.0995
2.0744		1.0734		0.0000		5.6920		66.5537		2.1468		68.1995
2.0750		1.0758		0.0000		5.7004		66.5730		2.1516		68.2995
2.0758		1.0782		0.0000		5.7087		66.5986		2.1564		68.3995
2.0764		1.0806		0.0000		5.7171		66.6179		2.1612		68.4995
2.0772		1.0830		0.0000		5.7254		66.6436		2.1660		68.5995
2.0782		1.0856		0.0000		5.7338		66.6757		2.1712		68.6995
2.0790		1.0880		0.0000		5.7421		66.7013		2.1760		68.7995
2.0800		1.0902		0.0000		5.7502		66.7334		2.1804		68.8995
2.0808		1.0926		0.0000		5.7586		66.7591		2.1852		68.9995
2.0814		1.0950		0.0000		5.7669		66.7783		2.1900		69.0995
2.0822		1.0974		0.0000		5.7756		66.8040		2.1948		69.1995
2.0828		1.0998		0.0000		5.7839		66.8232		2.1996		69.2995
2.0836		1.1024		0.0000		5.7923		66.8489		2.2048		69.3995
2.0844		1.1048		0.0000		5.8006		66.8746		2.2096		69.4995
2.0854		1.1072		0.0000		5.8087		66.9066		2.2144		69.5995
2.0860		1.1096		0.0000		5.8170		66.9259		2.2192		69.6995
2.0866		1.1120		0.0000		5.8254		66.9452		2.2240		69.7995
2.0870		1.1146		0.0000		5.8337		66.9580		2.2292		69.8995
2.0878		1.1170		0.0000		5.8421		66.9837		2.2340		69.9995
2.0884		1.1192		0.0000		5.8504		67.0029		2.2384		70.0995
2.0892		1.1216		0.0000		5.8588		67.0286		2.2432		70.1995
2.0902		1.1240		0.0000		5.8671		67.0607		2.2480		70.2995
2.0906		1.1264		0.0000		5.8755		67.0735		2.2528		70.3995
2.0912		1.1290		0.0000		5.8836		67.0927		2.2580		70.4995
2.0916		1.1314		0.0000		5.8919		67.1056		2.2628		70.5995
2.0922		1.1336		0.0000		5.9005		67.1248		2.2672		70.6995
2.0930		1.1362		0.0000		5.9089		67.1505		2.2724		70.7995
2.0938		1.1386		0.0000		5.9172		67.1762		2.2772		70.8995
2.0946		1.1412		0.0000		5.9256		67.2018		2.2824		70.9995
2.0950		1.1436		0.0000		5.9337		67.2147		2.2872		71.0995
2.0956		1.1460		0.0000		5.9420		67.2339		2.2920		71.1995
2.0962		1.1486		0.0000		5.9504		67.2532		2.2972		71.2995
2.0966		1.1510		0.0000		5.9587		67.2660		2.3020		71.3995
2.0974		1.1536		0.0000		5.9671		67.2916		2.3072		71.4995
2.0984		1.1560		0.0000		5.9754		67.3237		2.3120		71.5995
2.0992		1.1586		0.0000		5.9841		67.3494		2.3172		71.6995
2.0996		1.1610		0.0000		5.9921		67.3622		2.3220		71.7995
2.1002		1.1634		0.0000		6.0005		67.3815		2.3268		71.8995
2.1006		1.1660		0.0000		6.0085		67.3943		2.3320		71.9995
2.1012		1.1684		0.0000		6.0169		67.4136		2.3368		72.0995
2.1018		1.1710		0.0000		6.0255		67.4328		2.3420		72.1995
2.1028		1.1734		0.0000		6.0339		67.4649		2.3468		72.2995
2.1034		1.1758		0.0000		6.0422		67.4842		2.3516		72.3995
2.1036		1.1782		0.0000		6.0506		67.4906		2.3564		72.4995
2.1042		1.1808		0.0000		6.0589		67.5098		2.3616		72.5995
2.1046		1.1832		0.0000		6.0670		67.5227		2.3664		72.6995
2.1052		1.1858		0.0000		6.0754		67.5419		2.3716		72.7995
2.1060		1.1882		0.0000		6.0837		67.5676		2.3764		72.8995
2.1070		1.1908		0.0000		6.0921		67.5996		2.3816		72.9995
2.1076		1.1934		0.0000		6.1004		67.6189		2.3868		73.0995
2.1080		1.1958		0.0000		6.1088		67.6317		2.3916		73.1995
2.1084		1.1984		0.0000		6.1171		67.6446		2.3968		73.2995
2.1086		1.2010		0.0000		6.1255		67.6510		2.4020		73.3995
2.1090		1.2034		0.0000		6.1335		67.6638		2.4068		73.4995
2.1096		1.2060		0.0000		6.1422		67.6831		2.4120		73.5994
2.1104		1.2086		0.0000		6.1505		67.7087		2.4172		73.6994
2.1110		1.2112		0.0000		6.1589		67.7280		2.4224		73.7994
2.1114		1.2136		0.0000		6.1672		67.7408		2.4272		73.8994
2.1116		1.2162		0.0000		6.1756		67.7472		2.4324		73.9994
2.1118		1.2186		0.0000		6.1839		67.7537		2.4372		74.0994
2.1124		1.2210		0.0000		6.1920		67.7729		2.4420		74.1994
2.1128		1.2236		0.0000		6.2004		67.7857		2.4472		74.2994
2.1136		1.2262		0.0000		6.2087		67.8114		2.4524		74.3994
2.1142		1.2288		0.0000		6.2171		67.8307		2.4576		74.4994
2.1146		1.2314		0.0000		6.2254		67.8435		2.4628		74.5994
2.1148		1.2338		0.0000		6.2340		67.8499		2.4676		74.6994
2.1152		1.2364		0.0000		6.2421		67.8627		2.4728		74.7994
2.1156		1.2390		0.0000		6.2505		67.8756		2.4780		74.8994
2.1162		1.2416		0.0000		6.2588		67.8948		2.4832		74.9994
2.1168		1.2440		0.0000		6.2669		67.9141		2.4880		75.0994
2.1174		1.2466		0.0000		6.2755		67.9333		2.4932		75.1994
2.1176		1.2492		0.0000		6.2839		67.9397		2.4984		75.2994
2.1178		1.2518		0.0000		6.2922		67.9462		2.5036		75.3994
2.1182		1.2544		0.0000		6.3006		67.9590		2.5088		75.4994
2.1184		1.2570		0.0000		6.3089		67.9654		2.5140		75.5994
2.1192		1.2596		0.0000		6.3170		67.9911		2.5192		75.6994
2.1198		1.2618		0.0000		6.3253		68.0103		2.5236		75.7994
2.1202		1.2644		0.0000		6.3337		68.0232		2.5288		75.8994
2.1204		1.2670		0.0000		6.3420		68.0296		2.5340		75.9994
2.1208		1.2696		0.0000		6.3504		68.0424		2.5392		76.0994
2.1210		1.2722		0.0000		6.3590		68.0488		2.5444		76.1994
2.1214		1.2748		0.0000		6.3671		68.0617		2.5496		76.2994
2.1218		1.2774		0.0000		6.3755		68.0745		2.5548		76.3994
2.1224		1.2800		0.0000		6.3838		68.0937		2.5600		76.4994
2.1228		1.2828		0.0000		6.3922		68.1066		2.5656		76.5994
2.1232		1.2852		0.0000		6.4005		68.1194		2.5704		76.6994
2.1232		1.2878		0.0000		6.4089		68.1194		2.5756		76.7994
2.1236		1.2904		0.0000		6.4172		68.1322		2.5808		76.8994
2.1240		1.2930		0.0000		6.4256		68.1451		2.5860		76.9994
2.1246		1.2958		0.0000		6.4339		68.1643		2.5916		77.0994
2.1252		1.2984		0.0000		6.4420		68.1836		2.5968		77.1994
2.1254		1.3010		0.0000		6.4503		68.1900		2.6020		77.2994
2.1258		1.3038		0.0000		6.4587		68.2028		2.6076		77.3994
2.1258		1.3062		0.0000		6.4670		68.2028		2.6124		77.4994
2.1262		1.3088		0.0000		6.4757		68.2157		2.6176		77.5994
2.1266		1.3114		0.0000		6.4837		68.2285		2.6228		77.6994
2.1270		1.3140		0.0000		6.4924		68.2413		2.6280		77.7994
2.1276		1.3166		0.0000		6.5004		68.2606		2.6332		77.8994
2.1278		1.3194		0.0000		6.5088		68.2670		2.6388		77.9994
2.1278		1.3220		0.0000		6.5172		68.2670		2.6440		78.0994
2.1280		1.3246		0.0000		6.5255		68.2734		2.6492		78.1994
2.1282		1.3272		0.0000		6.5339		68.2798		2.6544		78.2994
2.1286		1.3298		0.0000		6.5422		68.2926		2.6596		78.3994
2.1292		1.3326		0.0000		6.5506		68.3119		2.6652		78.4994
2.1296		1.3352		0.0000		6.5589		68.3247		2.6704		78.5994
2.1296		1.3378		0.0000		6.5673		68.3247		2.6756		78.6994
2.1298		1.3406		0.0000		6.5753		68.3312		2.6812		78.7994
2.1298		1.3432		0.0000		6.5837		68.3312		2.6864		78.8994
2.1300		1.3458		0.0000		6.5920		68.3376		2.6916		78.9994
2.1304		1.3484		0.0000		6.6004		68.3504		2.6968		79.0994
2.1310		1.3508		0.0000		6.6090		68.3697		2.7016		79.1994
2.1312		1.3534		0.0000		6.6174		68.3761		2.7068		79.2994
2.1312		1.3562		0.0000		6.6254		68.3761		2.7124		79.3994
2.1314		1.3588		0.0000		6.6338		68.3825		2.7176		79.4994
2.1312		1.3616		0.0000		6.6421		68.3761		2.7232		79.5994
2.1316		1.3642		0.0000		6.6505		68.3889		2.7284		79.6994
2.1318		1.3670		0.0000		6.6588		68.3953		2.7340		79.7994
2.1326		1.3696		0.0000		6.6672		68.4210		2.7392		79.8994
2.1330		1.3724		0.0000		6.6756		68.4338		2.7448		79.9994
2.1330		1.3750		0.0000		6.6839		68.4338		2.7500		80.0993
2.1332		1.3776		0.0000		6.6923		68.4402		2.7552		80.1993
2.1332		1.3804		0.0000		6.7003		68.4402		2.7608		80.2993
2.1334		1.3830		0.0000		6.7087		68.4467		2.7660		80.3993
2.1336		1.3856		0.0000		6.7170		68.4531		2.7712		80.4993
2.1342		1.3884		0.0000		6.7254		68.4723		2.7768		80.5993
2.1342		1.3910		0.0000		6.7340		68.4723		2.7820		80.6993
2.1342		1.3936		0.0000		6.7424		68.4723		2.7872		80.7993
2.1342		1.3962		0.0000		6.7507		68.4723		2.7924		80.8993
2.1342		1.3988		0.0000		6.7588		68.4723		2.7976		80.9993
2.1342		1.4016		0.0000		6.7671		68.4723		2.8032		81.0993
2.1344		1.4042		0.0000		6.7755		68.4787		2.8084		81.1993
2.1350		1.4068		0.0000		6.7838		68.4980		2.8136		81.2993
2.1352		1.4096		0.0000		6.7922		68.5044		2.8192		81.3993
2.1352		1.4122		0.0000		6.8005		68.5044		2.8244		81.4993
2.1352		1.4150		0.0000		6.8089		68.5044		2.8300		81.5993
2.1352		1.4176		0.0000		6.8172		68.5044		2.8352		81.6993
2.1352		1.4204		0.0000		6.8253		68.5044		2.8408		81.7993
2.1354		1.4230		0.0000		6.8337		68.5108		2.8460		81.8993
2.1360		1.4258		0.0000		6.8420		68.5301		2.8516		81.9993
2.1360		1.4284		0.0000		6.8507		68.5301		2.8568		82.0993
2.1360		1.4310		0.0000		6.8590		68.5301		2.8620		82.1993
2.1360		1.4338		0.0000		6.8674		68.5301		2.8676		82.2993
2.1358		1.4364		0.0000		6.8757		68.5237		2.8728		82.3993
2.1360		1.4390		0.0000		6.8838		68.5301		2.8780		82.4993
2.1364		1.4418		0.0000		6.8921		68.5429		2.8836		82.5993
2.1368		1.4446		0.0000		6.9005		68.5557		2.8892		82.6993
2.1368		1.4472		0.0000		6.9088		68.5557		2.8944		82.7993
2.1370		1.4500		0.0000		6.9172		68.5622		2.9000		82.8993
2.1370		1.4528		0.0000		6.9255		68.5622		2.9056		82.9993
2.1370		1.4556		0.0000		6.9339		68.5622		2.9112		83.0993
2.1372		1.4582		0.0000		6.9422		68.5686		2.9164		83.1993
2.1374		1.4610		0.0000		6.9506		68.5750		2.9220		83.2993
2.1378		1.4638		0.0000		6.9587		68.5878		2.9276		83.3993
2.1378		1.4666		0.0000		6.9670		68.5878		2.9332		83.4993
2.1376		1.4692		0.0000		6.9756		68.5814		2.9384		83.5993
2.1376		1.4720		0.0000		6.9840		68.5814		2.9440		83.6993
2.1376		1.4746		0.0000		6.9924		68.5814		2.9492		83.7993
2.1376		1.4774		0.0000		7.0007		68.5814		2.9548		83.8993
2.1378		1.4800		0.0000		7.0088		68.5878		2.9600		83.9993
2.1380		1.4828		0.0000		7.0171		68.5942		2.9656		84.0993
2.1380		1.4854		0.0000		7.0255		68.5942		2.9708		84.1993
2.1380		1.4882		0.0000		7.0338		68.5942		2.9764		84.2993
2.1378		1.4910		0.0000		7.0422		68.5878		2.9820		84.3993
2.1378		1.4938		0.0000		7.0505		68.5878		2.9876		84.4993
2.1378		1.4966		0.0000		7.0589		68.5878		2.9932		84.5993
2.1382		1.4992		0.0000		7.0672		68.6007		2.9984		84.6993
2.1382		1.5020		0.0000		7.0756		68.6007		3.0040		84.7993
2.1382		1.5048		0.0000		7.0836		68.6007		3.0096		84.8993
2.1384		1.5076		0.0000		7.0920		68.6071		3.0152		84.9993
2.1382		1.5104		0.0000		7.1004		68.6007		3.0208		85.0993
2.1382		1.5132		0.0000		7.1090		68.6007		3.0264		85.1993
2.1382		1.5160		0.0000		7.1173		68.6007		3.0320		85.2993
2.1386		1.5188		0.0000		7.1257		68.6135		3.0376		85.3993
2.1388		1.5216		0.0000		7.1338		68.6199		3.0432		85.4993
2.1386		1.5242		0.0000		7.1421		68.6135		3.0484		85.5993
2.1386		1.5268		0.0000		7.1505		68.6135		3.0536		85.6993
2.1382		1.5296		0.0000		7.1588		68.6007		3.0592		85.7993
2.1384		1.5324		0.0000		7.1672		68.6071		3.0648		85.8993
2.1384		1.5352		0.0000		7.1755		68.6071		3.0704		85.9993
2.1390		1.5382		0.0000		7.1839		68.6263		3.0764		86.0993
2.1390		1.5410		0.0000		7.1922		68.6263		3.0820		86.1993
2.1390		1.5438		0.0000		7.2006		68.6263		3.0876		86.2993
2.1390		1.5466		0.0000		7.2086		68.6263		3.0932		86.3993
2.1386		1.5494		0.0000		7.2170		68.6135		3.0988		86.4993
2.1388		1.5522		0.0000		7.2256		68.6199		3.1044		86.5993
2.1388		1.5552		0.0000		7.2340		68.6199		3.1104		86.6992
2.1390		1.5580		0.0000		7.2423		68.6263		3.1160		86.7992
2.1390		1.5608		0.0000		7.2507		68.6263		3.1216		86.8992
2.1388		1.5636		0.0000		7.2588		68.6199		3.1272		86.9992
2.1388		1.5660		0.0000		7.2671		68.6199		3.1320		87.0992
2.1386		1.5690		0.0000		7.2755		68.6135		3.1380		87.1992
2.1384		1.5718		0.0000		7.2838		68.6071		3.1436		87.2992
2.1386		1.5746		0.0000		7.2922		68.6135		3.1492		87.3992
2.1388		1.5774		0.0000		7.3005		68.6199		3.1548		87.4992
2.1388		1.5802		0.0000		7.3092		68.6199		3.1604		87.5992
2.1386		1.5830		0.0000		7.3172		68.6135		3.1660		87.6992
2.1384		1.5858		0.0000		7.3256		68.6071		3.1716		87.7992
2.1382		1.5886		0.0000		7.3339		68.6007		3.1772		87.8992
2.1380		1.5914		0.0000		7.3420		68.5942		3.1828		87.9992
2.1380		1.5942		0.0000		7.3506		68.5942		3.1884		88.0992
2.1382		1.5970		0.0000		7.3590		68.6007		3.1940		88.1992
2.1382		1.5998		0.0000		7.3673		68.6007		3.1996		88.2992
2.1380		1.6026		0.0000		7.3757		68.5942		3.2052		88.3992
2.1378		1.6054		0.0000		7.3840		68.5878		3.2108		88.4992
2.1374		1.6082		0.0000		7.3921		68.5750		3.2164		88.5992
2.1374		1.6110		0.0000		7.4004		68.5750		3.2220		88.6992
2.1374		1.6138		0.0000		7.4088		68.5750		3.2276		88.7992
2.1378		1.6166		0.0000		7.4172		68.5878		3.2332		88.8992
2.1378		1.6194		0.0000		7.4258		68.5878		3.2388		88.9992
2.1374		1.6222		0.0000		7.4339		68.5750		3.2444		89.0992
2.1374		1.6252		0.0000		7.4422		68.5750		3.2504		89.1992
2.1368		1.6280		0.0000		7.4506		68.5557		3.2560		89.2992
2.1368		1.6308		0.0000		7.4586		68.5557		3.2616		89.3992
2.1370		1.6336		0.0000		7.4673		68.5622		3.2672		89.4992
2.1372		1.6366		0.0000		7.4756		68.5686		3.2732		89.5992
2.1372		1.6394		0.0000		7.4840		68.5686		3.2788		89.6992
2.1370		1.6422		0.0000		7.4923		68.5622		3.2844		89.7992
2.1368		1.6450		0.0000		7.5007		68.5557		3.2900		89.8992
2.1366		1.6480		0.0000		7.5090		68.5493		3.2960		89.9992
2.1364		1.6508		0.0000		7.5171		68.5429		3.3016		90.0992
2.1364		1.6536		0.0000		7.5254		68.5429		3.3072		90.1992
2.1368		1.6564		0.0000		7.5338		68.5557		3.3128		90.2992
2.1366		1.6594		0.0000		7.5421		68.5493		3.3188		90.3992
2.1364		1.6622		0.0000		7.5508		68.5429		3.3244		90.4992
2.1364		1.6650		0.0000		7.5591		68.5429		3.3300		90.5992
2.1360		1.6680		0.0000		7.5675		68.5301		3.3360		90.6992
2.1358		1.6708		0.0000		7.5756		68.5237		3.3416		90.7992
2.1360		1.6738		0.0000		7.5839		68.5301		3.3476		90.8992
2.1360		1.6766		0.0000		7.5920		68.5301		3.3532		90.9992
2.1360		1.6796		0.0000		7.6006		68.5301		3.3592		91.0992
2.1358		1.6826		0.0000		7.6090		68.5237		3.3652		91.1992
2.1356		1.6854		0.0000		7.6173		68.5172		3.3708		91.2992
2.1356		1.6884		0.0000		7.6257		68.5172		3.3768		91.3992
2.1354		1.6914		0.0000		7.6340		68.5108		3.3828		91.4992
2.1354		1.6942		0.0000		7.6421		68.5108		3.3884		91.5992
2.1356		1.6970		0.0000		7.6504		68.5172		3.3940		91.6992
2.1356		1.7000		0.0000		7.6588		68.5172		3.4000		91.7992
2.1356		1.7030		0.0000		7.6671		68.5172		3.4060		91.8992
2.1354		1.7058		0.0000		7.6755		68.5108		3.4116		91.9992
2.1354		1.7088		0.0000		7.6841		68.5108		3.4176		92.0992
2.1354		1.7118		0.0000		7.6925		68.5108		3.4236		92.1992
2.1354		1.7146		0.0000		7.7005		68.5108		3.4292		92.2992
2.1354		1.7176		0.0000		7.7089		68.5108		3.4352		92.3992
2.1352		1.7206		0.0000		7.7172		68.5044		3.4412		92.4992
2.1348		1.7236		0.0000		7.7256		68.4916		3.4472		92.5992
2.1346		1.7264		0.0000		7.7340		68.4852		3.4528		92.6992
2.1344		1.7294		0.0000		7.7423		68.4787		3.4588		92.7992
2.1344		1.7322		0.0000		7.7507		68.4787		3.4644		92.8992
2.1344		1.7352		0.0000		7.7590		68.4787		3.4704		92.9992
2.1344		1.7380		0.0000		7.7674		68.4787		3.4760		93.0992
2.1340		1.7408		0.0000		7.7754		68.4659		3.4816		93.1992
2.1338		1.7438		0.0000		7.7838		68.4595		3.4876		93.2991
2.1334		1.7468		0.0000		7.7921		68.4467		3.4936		93.3991
2.1332		1.7498		0.0000		7.8008		68.4402		3.4996		93.4991
2.1332		1.7528		0.0000		7.8088		68.4402		3.5056		93.5991
2.1334		1.7556		0.0000		7.8175		68.4467		3.5112		93.6991
2.1334		1.7586		0.0000		7.8255		68.4467		3.5172		93.7991
2.1330		1.7616		0.0000		7.8339		68.4338		3.5232		93.8991
2.1330		1.7646		0.0000		7.8422		68.4338		3.5292		93.9991
2.1322		1.7676		0.0000		7.8506		68.4082		3.5352		94.0991
2.1318		1.7706		0.0000		7.8589		68.3953		3.5412		94.1991
2.1318		1.7736		0.0000		7.8673		68.3953		3.5472		94.2991
2.1318		1.7764		0.0000		7.8756		68.3953		3.5528		94.3991
2.1314		1.7794		0.0000		7.8840		68.3825		3.5588		94.4991
2.1304		1.7818		0.0000		7.8924		68.3504		3.5636		94.5991
2.1298		1.7846		0.0000		7.9004		68.3312		3.5692		94.6991
2.1292		1.7874		0.0000		7.9088		68.3119		3.5748		94.7991
2.1288		1.7904		0.0000		7.9171		68.2991		3.5808		94.8991
2.1288		1.7934		0.0000		7.9258		68.2991		3.5868		94.9991
2.1290		1.7962		0.0000		7.9341		68.3055		3.5924		95.0991
2.1290		1.7992		0.0000		7.9425		68.3055		3.5984		95.1991
2.1286		1.8022		0.0000		7.9505		68.2926		3.6044		95.2991
2.1284		1.8052		0.0000		7.9589		68.2862		3.6104		95.3991
2.1280		1.8082		0.0000		7.9672		68.2734		3.6164		95.4991
2.1276		1.8112		0.0000		7.9756		68.2606		3.6224		95.5991
2.1276		1.8142		0.0000		7.9839		68.2606		3.6284		95.6991
2.1278		1.8172		0.0000		7.9923		68.2670		3.6344		95.7991
2.1278		1.8202		0.0000		8.0006		68.2670		3.6404		95.8991
2.1274		1.8230		0.0000		8.0090		68.2542		3.6460		95.9991
2.1272		1.8260		0.0000		8.0173		68.2477		3.6520		96.0991
2.1268		1.8290		0.0000		8.0254		68.2349		3.6580		96.1991
2.1266		1.8320		0.0000		8.0338		68.2285		3.6640		96.2991
2.1264		1.8348		0.0000		8.0421		68.2221		3.6696		96.3991
2.1266		1.8378		0.0000		8.0508		68.2285		3.6756		96.4991
2.1264		1.8408		0.0000		8.0591		68.2221		3.6816		96.5991
2.1260		1.8438		0.0000		8.0675		68.2092		3.6876		96.6991
2.1258		1.8468		0.0000		8.0758		68.2028		3.6936		96.7991
2.1254		1.8498		0.0000		8.0839		68.1900		3.6996		96.8991
2.1252		1.8530		0.0000		8.0922		68.1836		3.7060		96.9991
2.1250		1.8558		0.0000		8.1006		68.1772		3.7116		97.0991
2.1250		1.8590		0.0000		8.1089		68.1772		3.7180		97.1991
2.1248		1.8618		0.0000		8.1173		68.1707		3.7236		97.2991
2.1244		1.8648		0.0000		8.1256		68.1579		3.7296		97.3991
2.1244		1.8678		0.0000		8.1340		68.1579		3.7356		97.4991
2.1240		1.8706		0.0000		8.1423		68.1451		3.7412		97.5991
2.1238		1.8736		0.0000		8.1507		68.1387		3.7472		97.6991
2.1236		1.8768		0.0000		8.1588		68.1322		3.7536		97.7991
2.1238		1.8798		0.0000		8.1671		68.1387		3.7596		97.8991
2.1234		1.8828		0.0000		8.1757		68.1258		3.7656		97.9991
2.1232		1.8858		0.0000		8.1841		68.1194		3.7716		98.0991
2.1226		1.8888		0.0000		8.1924		68.1002		3.7776		98.1991
2.1222		1.8918		0.0000		8.2008		68.0873		3.7836		98.2991
2.1220		1.8948		0.0000		8.2089		68.0809		3.7896		98.3991
2.1218		1.8978		0.0000		8.2172		68.0745		3.7956		98.4991
2.1218		1.9010		0.0000		8.2256		68.0745		3.8020		98.5991
2.1214		1.9040		0.0000		8.2339		68.0617		3.8080		98.6991
2.1210		1.9070		0.0000		8.2423		68.0488		3.8140		98.7991
2.1206		1.9100		0.0000		8.2506		68.0360		3.8200		98.8991
2.1202		1.9126		0.0000		8.2590		68.0232		3.8252		98.9991
2.1200		1.9158		0.0000		8.2673		68.0167		3.8316		99.0991
2.1196		1.9188		0.0000		8.2754		68.0039		3.8376		99.1991
2.1196		1.9218		0.0000		8.2837		68.0039		3.8436		99.2991
2.1192		1.9248		0.0000		8.2921		67.9911		3.8496		99.3991
2.1188		1.9278		0.0000		8.3004		67.9782		3.8556		99.4991
2.1184		1.9308		0.0000		8.3088		67.9654		3.8616		99.5991
2.1180		1.9338		0.0000		8.3172		67.9526		3.8676		99.6991
2.1178		1.9368		0.0000		8.3255		67.9462		3.8736		99.7990
2.1174		1.9398		0.0000		8.3339		67.9333		3.8796		99.8990
2.1174		1.9428		0.0000		8.3419		67.9333		3.8856		99.9990
2.1170		1.9458		0.0000		8.3503		67.9205		3.8916		100.0990
2.1166		1.9488		0.0000		8.3586		67.9077		3.8976		100.1990
2.1160		1.9518		0.0000		8.3673		67.8884		3.9036		100.2990
2.1158		1.9548		0.0000		8.3756		67.8820		3.9096		100.3990
2.1154		1.9576		0.0000		8.3840		67.8692		3.9152		100.4990
2.1154		1.9606		0.0000		8.3923		67.8692		3.9212		100.5990
2.1150		1.9638		0.0000		8.4004		67.8563		3.9276		100.6990
2.1146		1.9666		0.0000		8.4087		67.8435		3.9332		100.7990
2.1142		1.9696		0.0000		8.4171		67.8307		3.9392		100.8990
2.1138		1.9728		0.0000		8.4254		67.8178		3.9456		100.9990
2.1134		1.9758		0.0000		8.4338		67.8050		3.9516		101.0990
2.1130		1.9788		0.0000		8.4421		67.7922		3.9576		101.1990
2.1130		1.9818		0.0000		8.4505		67.7922		3.9636		101.2990
2.1126		1.9848		0.0000		8.4588		67.7793		3.9696		101.3990
2.1124		1.9878		0.0000		8.4672		67.7729		3.9756		101.4990
2.1120		1.9908		0.0000		8.4753		67.7601		3.9816		101.5990
2.1114		1.9938		0.0000		8.4836		67.7408		3.9876		101.6990
2.1110		1.9970		0.0000		8.4923		67.7280		3.9940		101.7990
2.1108		1.9998		0.0000		8.5006		67.7216		3.9996		101.8990
2.1108		2.0028		0.0000		8.5090		67.7216		4.0056		101.9990
2.1106		2.0060		0.0000		8.5173		67.7152		4.0120		102.0990
2.1102		2.0090		0.0000		8.5254		67.7023		4.0180		102.1990
2.1096		2.0120		0.0000		8.5337		67.6831		4.0240		102.2990
2.1092		2.0152		0.0000		8.5421		67.6702		4.0304		102.3990
2.1088		2.0182		0.0000		8.5504		67.6574		4.0364		102.4990
2.1084		2.0212		0.0000		8.5588		67.6446		4.0424		102.5990
2.1084		2.0242		0.0000		8.5671		67.6446		4.0484		102.6990
2.1082		2.0274		0.0000		8.5755		67.6382		4.0548		102.7990
2.1076		2.0304		0.0000		8.5838		67.6189		4.0608		102.8990
2.1072		2.0334		0.0000		8.5922		67.6061		4.0668		102.9990
2.1066		2.0364		0.0000		8.6003		67.5868		4.0728		103.0990
2.1062		2.0396		0.0000		8.6086		67.5740		4.0792		103.1990
2.1058		2.0426		0.0000		8.6172		67.5611		4.0852		103.2990
2.1058		2.0456		0.0000		8.6256		67.5611		4.0912		103.3990
2.1056		2.0486		0.0000		8.6340		67.5547		4.0972		103.4990
2.1050		2.0516		0.0000		8.6423		67.5355		4.1032		103.5990
2.1046		2.0546		0.0000		8.6504		67.5227		4.1092		103.6990
2.1038		2.0576		0.0000		8.6587		67.4970		4.1152		103.7990
2.1036		2.0606		0.0000		8.6671		67.4906		4.1212		103.8990
2.1034		2.0636		0.0000		8.6754		67.4842		4.1272		103.9990
2.1034		2.0668		0.0000		8.6838		67.4842		4.1336		104.0990
2.1030		2.0698		0.0000		8.6924		67.4713		4.1396		104.1990
2.1026		2.0728		0.0000		8.7005		67.4585		4.1456		104.2990
2.1020		2.0758		0.0000		8.7088		67.4392		4.1516		104.3990
2.1014		2.0790		0.0000		8.7172		67.4200		4.1580		104.4990
2.1010		2.0820		0.0000		8.7252		67.4072		4.1640		104.5990
2.1008		2.0850		0.0000		8.7339		67.4007		4.1700		104.6990
2.1008		2.0882		0.0000		8.7422		67.4007		4.1764		104.7990
2.1004		2.0912		0.0000		8.7506		67.3879		4.1824		104.8990
2.0996		2.0944		0.0000		8.7589		67.3622		4.1888		104.9990
2.0992		2.0974		0.0000		8.7673		67.3494		4.1948		105.0990
2.0988		2.1006		0.0000		8.7754		67.3366		4.2012		105.1990
2.0984		2.1036		0.0000		8.7837		67.3237		4.2072		105.2990
2.0980		2.1066		0.0000		8.7921		67.3109		4.2132		105.3990
2.0980		2.1096		0.0000		8.8004		67.3109		4.2192		105.4990
2.0978		2.1128		0.0000		8.8088		67.3045		4.2256		105.5990
2.0974		2.1158		0.0000		8.8171		67.2916		4.2316		105.6990
2.0972		2.1190		0.0000		8.8258		67.2852		4.2380		105.7990
2.0964		2.1222		0.0000		8.8338		67.2596		4.2444		105.8990
2.0960		2.1252		0.0000		8.8422		67.2467		4.2504		105.9990
2.0958		2.1282		0.0000		8.8505		67.2403		4.2564		106.0990
2.0954		2.1312		0.0000		8.8586		67.2275		4.2624		106.1990
2.0952		2.1344		0.0000		8.8672		67.2211		4.2688		106.2990
2.0948		2.1374		0.0000		8.8756		67.2082		4.2748		106.3989
2.0944		2.1406		0.0000		8.8839		67.1954		4.2812		106.4989
2.0938		2.1436		0.0000		8.8923		67.1762		4.2872		106.5989
2.0934		2.1468		0.0000		8.9006		67.1633		4.2936		106.6989
2.0932		2.1498		0.0000		8.9087		67.1569		4.2996		106.7989
2.0932		2.1530		0.0000		8.9171		67.1569		4.3060		106.8989
2.0928		2.1562		0.0000		8.9254		67.1441		4.3124		106.9989
2.0924		2.1592		0.0000		8.9338		67.1312		4.3184		107.0989
2.0918		2.1622		0.0000		8.9421		67.1120		4.3244		107.1989
2.0914		2.1654		0.0000		8.9508		67.0992		4.3308		107.2989
2.0910		2.1684		0.0000		8.9588		67.0863		4.3368		107.3989
2.0906		2.1716		0.0000		8.9672		67.0735		4.3432		107.4989
2.0904		2.1748		0.0000		8.9755		67.0671		4.3496		107.5989
2.0898		2.1778		0.0000		8.9839		67.0478		4.3556		107.6989
2.0896		2.1810		0.0000		8.9922		67.0414		4.3620		107.7989
2.0890		2.1840		0.0000		9.0006		67.0222		4.3680		107.8989
2.0884		2.1872		0.0000		9.0089		67.0029		4.3744		107.9989
2.0880		2.1904		0.0000		9.0173		66.9901		4.3808		108.0989
2.0880		2.1934		0.0000		9.0256		66.9901		4.3868		108.1989
2.0876		2.1966		0.0000		9.0337		66.9772		4.3932		108.2989
2.0872		2.1998		0.0000		9.0420		66.9644		4.3996		108.3989
2.0866		2.2028		0.0000		9.0504		66.9452		4.4056		108.4989
2.0862		2.2060		0.0000		9.0588		66.9323		4.4120		108.5989
2.0858		2.2090		0.0000		9.0674		66.9195		4.4180		108.6989
2.0854		2.2122		0.0000		9.0757		66.9066		4.4244		108.7989
2.0852		2.2152		0.0000		9.0838		66.9002		4.4304		108.8989
2.0848		2.2182		0.0000		9.0922		66.8874		4.4364		108.9989
2.0736		2.2152		0.0000		9.1014		66.5281		4.4304		109.0989
0.9840		2.4530		0.0000		9.1089		31.5700		4.9060		109.1989

=========================Analysis==========================
nTakeDeforIndex: 0
Pm_Visible: 1
Pm_Index: 868
Pm_Load: 2.1390
Pm_Defor: 1.5608
Pm_Stroke: 7.2507
Pm_Stress: 68.6263
Pm_Strain: 3.1216
Pm_Time: 86.8992
PeH_Visible: 1
PeH_Index: 0
PeH_Load: 0.0000
PeH_Defor: 0.0000
PeH_Stroke: 0.0000
PeH_Stress: 0.0000
PeH_Strain: 0.0000
PeH_Time: 0.0000
PeL_Visible: 1
PeL_Index: 0
PeL_Load: 0.0000
PeL_Defor: 0.0000
PeL_Stroke: 0.0000
PeL_Stress: 0.0000
PeL_Strain: 0.0000
PeL_Time: 0.0000
Pp_Visible: 1
Pp_Index: 441
Pp_Load: 1.6666
Pp_Defor: 0.5868
Pp_Stroke: 3.6922
Pp_Stress: 53.4701
Pp_Strain: 1.1736
Pp_Time: 44.1999
Pp1_Visible: 1
Pp1_Index: 373
Pp1_Load: 1.4656
Pp1_Defor: 0.4766
Pp1_Stroke: 3.1254
Pp1_Stress: 47.0214
Pp1_Strain: 0.9532
Pp1_Time: 37.4000
Pt_Visible: 1
Pt_Index: 206
Pt_Load: 0.8422
Pt_Defor: 0.2400
Pt_Stroke: 1.7338
Pt_Stress: 27.0206
Pt_Strain: 0.4800
Pt_Time: 20.7000
Pe_Visible: 0
Pe_Index: 0
Pe_Load: 0.0000
Pe_Defor: 0.0000
Pe_Stroke: 0.0000
Pe_Stress: 0.0000
Pe_Strain: 0.0000
Pe_Time: 0.0000
P1_Visible: 1
P1_Index: 107
P1_Load: 0.4286
P1_Defor: 0.1166
P1_Stroke: 0.9086
P1_Stress: 13.7509
P1_Strain: 0.2332
P1_Time: 10.8000
P2_Visible: 1
P2_Index: 210
P2_Load: 0.8586
P2_Defor: 0.2450
P2_Stroke: 1.7669
P2_Stress: 27.5468
P2_Strain: 0.4900
P2_Time: 21.1000
Pb_Visible: 1
Pb_Index: 1090
Pb_Load: 2.0736
Pb_Defor: 2.2152
Pb_Stroke: 9.1014
Pb_Stress: 66.5281
Pb_Strain: 4.4304
Pb_Time: 109.0989
kE: 3.3529
LP_Index1: 0
LP_Index2: 0
LP_Index3: 0
LP_Index4: 0
LP_Index5: 0
LP_Index6: 0
LP_Index7: 0
LP_Index8: 0
LP_Index9: 0
LP_Index10: 0
EP_Index1: 0
EP_Index2: 0
EP_Index3: 0
EP_Index4: 0
EP_Index5: 0
EP_Index6: 0
EP_Index7: 0
EP_Index8: 0
EP_Index9: 0
EP_Index10: 0
DP_Index1: 0
DP_Index2: 0
DP_Index3: 0
DP_Index4: 0
DP_Index5: 0
DP_Index6: 0
DP_Index7: 0
DP_Index8: 0
DP_Index9: 0
DP_Index10: 0
TP_Index1: 0
TP_Index2: 0
TP_Index3: 0
TP_Index4: 0
TP_Index5: 0
TP_Index6: 0
TP_Index7: 0
TP_Index8: 0
TP_Index9: 0
TP_Index10: 0
